Summary
[Data Information]
Data is:	Measurement Data
Dataset Name:	RawData
Sample Name:	0.6g-20ml-PVB
Sample ID:	0.6g-20ml-PVB
Option
Analyst
Date/Time:	05/28/2025 04:11:56 PM
Comments
Parameter File Name:	200-800nm.vspm
Report File Name
[Software Information]
Software Name:	LabSolutions UV-Vis
Version:	1.14
[Instrument Information]
Instrument Name:	BNT
Instrument Type:	UV-1900 Series
Model (S/N):	SBN-SPEC-158 (A12425600028)

Parameter
[Measurement]
Start:	900 nm
End:	190 nm
Data Interval:	1.0
Scan Speed:	High speed
Spectrum Type:	Absorbance
[Accessories]
Accessories:	6-Series Multi-Cell
Number of Cell:	1
[Advanced]
Light Source Switch Wavelength:	340.00
S/R Switch:	Standard
[Repeat]
Repeat Measurement:	OFF
[Post-processing]
Spectrum Transformation:	OFF
Data Processing Table:	OFF
Print:	OFF

Wavelength (nm)	Absorbance
190.0	2.331
191.0	3.026
192.0	2.087
193.0	2.776
194.0	1.319
195.0	3.492
196.0	0.458
197.0	2.534
198.0	2.476
199.0	2.052
200.0	1.694
201.0	3.237
202.0	3.238
203.0	3.619
204.0	4.000
205.0	4.000
206.0	4.000
207.0	4.000
208.0	4.000
209.0	4.000
210.0	4.000
211.0	4.000
212.0	4.000
213.0	4.000
214.0	4.000
215.0	4.000
216.0	4.000
217.0	4.000
218.0	4.000
219.0	4.000
220.0	4.000
221.0	4.000
222.0	4.000
223.0	4.000
224.0	4.000
225.0	4.000
226.0	4.000
227.0	4.000
228.0	4.000
229.0	4.000
230.0	4.000
231.0	4.000
232.0	4.000
233.0	4.000
234.0	4.000
235.0	4.000
236.0	4.000
237.0	4.000
238.0	4.000
239.0	4.000
240.0	3.988
241.0	3.983
242.0	3.892
243.0	3.817
244.0	3.702
245.0	3.577
246.0	3.520
247.0	3.424
248.0	3.347
249.0	3.241
250.0	3.176
251.0	3.092
252.0	3.014
253.0	2.952
254.0	2.896
255.0	2.807
256.0	2.747
257.0	2.694
258.0	2.635
259.0	2.579
260.0	2.531
261.0	2.485
262.0	2.446
263.0	2.418
264.0	2.390
265.0	2.361
266.0	2.349
267.0	2.333
268.0	2.307
269.0	2.295
270.0	2.285
271.0	2.272
272.0	2.258
273.0	2.248
274.0	2.249
275.0	2.231
276.0	2.216
277.0	2.199
278.0	2.173
279.0	2.154
280.0	2.120
281.0	2.097
282.0	2.071
283.0	2.046
284.0	2.024
285.0	1.988
286.0	1.944
287.0	1.895
288.0	1.847
289.0	1.803
290.0	1.759
291.0	1.724
292.0	1.691
293.0	1.659
294.0	1.625
295.0	1.602
296.0	1.578
297.0	1.555
298.0	1.534
299.0	1.514
300.0	1.498
301.0	1.483
302.0	1.467
303.0	1.453
304.0	1.440
305.0	1.426
306.0	1.415
307.0	1.407
308.0	1.396
309.0	1.386
310.0	1.378
311.0	1.373
312.0	1.366
313.0	1.359
314.0	1.354
315.0	1.351
316.0	1.349
317.0	1.343
318.0	1.342
319.0	1.335
320.0	1.334
321.0	1.333
322.0	1.331
323.0	1.330
324.0	1.325
325.0	1.327
326.0	1.322
327.0	1.319
328.0	1.318
329.0	1.323
330.0	1.325
331.0	1.325
332.0	1.324
333.0	1.325
334.0	1.326
335.0	1.322
336.0	1.323
337.0	1.326
338.0	1.328
339.0	1.327
340.0	1.329
341.0	1.332
342.0	1.331
343.0	1.335
344.0	1.338
345.0	1.341
346.0	1.340
347.0	1.347
348.0	1.350
349.0	1.353
350.0	1.355
351.0	1.358
352.0	1.361
353.0	1.367
354.0	1.370
355.0	1.373
356.0	1.374
357.0	1.378
358.0	1.379
359.0	1.382
360.0	1.382
361.0	1.386
362.0	1.387
363.0	1.390
364.0	1.391
365.0	1.394
366.0	1.395
367.0	1.394
368.0	1.395
369.0	1.398
370.0	1.399
371.0	1.399
372.0	1.404
373.0	1.406
374.0	1.407
375.0	1.409
376.0	1.412
377.0	1.416
378.0	1.418
379.0	1.423
380.0	1.427
381.0	1.432
382.0	1.436
383.0	1.444
384.0	1.448
385.0	1.455
386.0	1.461
387.0	1.467
388.0	1.472
389.0	1.480
390.0	1.487
391.0	1.495
392.0	1.502
393.0	1.507
394.0	1.515
395.0	1.521
396.0	1.527
397.0	1.534
398.0	1.541
399.0	1.546
400.0	1.551
401.0	1.557
402.0	1.560
403.0	1.562
404.0	1.566
405.0	1.570
406.0	1.572
407.0	1.574
408.0	1.574
409.0	1.576
410.0	1.574
411.0	1.574
412.0	1.572
413.0	1.569
414.0	1.566
415.0	1.563
416.0	1.559
417.0	1.553
418.0	1.548
419.0	1.542
420.0	1.535
421.0	1.529
422.0	1.522
423.0	1.514
424.0	1.506
425.0	1.499
426.0	1.490
427.0	1.480
428.0	1.471
429.0	1.462
430.0	1.451
431.0	1.441
432.0	1.430
433.0	1.418
434.0	1.407
435.0	1.395
436.0	1.382
437.0	1.370
438.0	1.357
439.0	1.344
440.0	1.330
441.0	1.316
442.0	1.302
443.0	1.288
444.0	1.274
445.0	1.259
446.0	1.245
447.0	1.229
448.0	1.214
449.0	1.199
450.0	1.183
451.0	1.169
452.0	1.153
453.0	1.138
454.0	1.123
455.0	1.108
456.0	1.092
457.0	1.077
458.0	1.062
459.0	1.047
460.0	1.033
461.0	1.019
462.0	1.005
463.0	0.990
464.0	0.977
465.0	0.964
466.0	0.952
467.0	0.938
468.0	0.926
469.0	0.914
470.0	0.902
471.0	0.890
472.0	0.878
473.0	0.867
474.0	0.856
475.0	0.845
476.0	0.834
477.0	0.824
478.0	0.814
479.0	0.804
480.0	0.795
481.0	0.786
482.0	0.777
483.0	0.769
484.0	0.761
485.0	0.754
486.0	0.747
487.0	0.740
488.0	0.734
489.0	0.729
490.0	0.723
491.0	0.718
492.0	0.713
493.0	0.709
494.0	0.705
495.0	0.701
496.0	0.697
497.0	0.694
498.0	0.691
499.0	0.688
500.0	0.685
501.0	0.683
502.0	0.680
503.0	0.678
504.0	0.676
505.0	0.674
506.0	0.672
507.0	0.670
508.0	0.668
509.0	0.666
510.0	0.664
511.0	0.663
512.0	0.661
513.0	0.659
514.0	0.658
515.0	0.656
516.0	0.655
517.0	0.653
518.0	0.652
519.0	0.650
520.0	0.648
521.0	0.647
522.0	0.645
523.0	0.644
524.0	0.642
525.0	0.640
526.0	0.639
527.0	0.637
528.0	0.635
529.0	0.634
530.0	0.632
531.0	0.630
532.0	0.629
533.0	0.627
534.0	0.626
535.0	0.624
536.0	0.623
537.0	0.621
538.0	0.620
539.0	0.618
540.0	0.617
541.0	0.616
542.0	0.614
543.0	0.613
544.0	0.612
545.0	0.611
546.0	0.610
547.0	0.609
548.0	0.608
549.0	0.607
550.0	0.605
551.0	0.604
552.0	0.603
553.0	0.602
554.0	0.601
555.0	0.600
556.0	0.599
557.0	0.598
558.0	0.597
559.0	0.596
560.0	0.595
561.0	0.594
562.0	0.593
563.0	0.592
564.0	0.591
565.0	0.590
566.0	0.589
567.0	0.588
568.0	0.587
569.0	0.586
570.0	0.585
571.0	0.584
572.0	0.583
573.0	0.582
574.0	0.580
575.0	0.579
576.0	0.578
577.0	0.577
578.0	0.576
579.0	0.575
580.0	0.574
581.0	0.573
582.0	0.572
583.0	0.571
584.0	0.570
585.0	0.569
586.0	0.568
587.0	0.566
588.0	0.565
589.0	0.564
590.0	0.563
591.0	0.562
592.0	0.561
593.0	0.560
594.0	0.559
595.0	0.558
596.0	0.557
597.0	0.556
598.0	0.555
599.0	0.553
600.0	0.552
601.0	0.551
602.0	0.550
603.0	0.549
604.0	0.548
605.0	0.546
606.0	0.545
607.0	0.544
608.0	0.543
609.0	0.542
610.0	0.541
611.0	0.540
612.0	0.538
613.0	0.537
614.0	0.536
615.0	0.535
616.0	0.534
617.0	0.533
618.0	0.532
619.0	0.531
620.0	0.529
621.0	0.528
622.0	0.527
623.0	0.526
624.0	0.525
625.0	0.524
626.0	0.523
627.0	0.521
628.0	0.520
629.0	0.519
630.0	0.518
631.0	0.517
632.0	0.516
633.0	0.514
634.0	0.513
635.0	0.512
636.0	0.511
637.0	0.510
638.0	0.508
639.0	0.507
640.0	0.506
641.0	0.505
642.0	0.504
643.0	0.502
644.0	0.501
645.0	0.500
646.0	0.499
647.0	0.497
648.0	0.496
649.0	0.495
650.0	0.494
651.0	0.492
652.0	0.491
653.0	0.490
654.0	0.489
655.0	0.488
656.0	0.486
657.0	0.485
658.0	0.484
659.0	0.483
660.0	0.482
661.0	0.480
662.0	0.479
663.0	0.478
664.0	0.477
665.0	0.476
666.0	0.475
667.0	0.473
668.0	0.472
669.0	0.471
670.0	0.470
671.0	0.469
672.0	0.467
673.0	0.466
674.0	0.465
675.0	0.464
676.0	0.462
677.0	0.461
678.0	0.460
679.0	0.459
680.0	0.457
681.0	0.456
682.0	0.455
683.0	0.454
684.0	0.453
685.0	0.451
686.0	0.450
687.0	0.449
688.0	0.448
689.0	0.447
690.0	0.445
691.0	0.444
692.0	0.443
693.0	0.442
694.0	0.441
695.0	0.440
696.0	0.438
697.0	0.437
698.0	0.436
699.0	0.435
700.0	0.434
701.0	0.432
702.0	0.431
703.0	0.430
704.0	0.429
705.0	0.428
706.0	0.426
707.0	0.425
708.0	0.424
709.0	0.423
710.0	0.422
711.0	0.421
712.0	0.420
713.0	0.419
714.0	0.418
715.0	0.416
716.0	0.415
717.0	0.414
718.0	0.413
719.0	0.412
720.0	0.411
721.0	0.410
722.0	0.408
723.0	0.407
724.0	0.406
725.0	0.405
726.0	0.404
727.0	0.403
728.0	0.402
729.0	0.401
730.0	0.400
731.0	0.399
732.0	0.398
733.0	0.398
734.0	0.397
735.0	0.396
736.0	0.395
737.0	0.395
738.0	0.394
739.0	0.394
740.0	0.393
741.0	0.392
742.0	0.391
743.0	0.390
744.0	0.388
745.0	0.387
746.0	0.385
747.0	0.383
748.0	0.381
749.0	0.380
750.0	0.378
751.0	0.377
752.0	0.376
753.0	0.374
754.0	0.373
755.0	0.372
756.0	0.371
757.0	0.370
758.0	0.369
759.0	0.368
760.0	0.367
761.0	0.366
762.0	0.365
763.0	0.364
764.0	0.363
765.0	0.362
766.0	0.361
767.0	0.360
768.0	0.358
769.0	0.357
770.0	0.356
771.0	0.355
772.0	0.354
773.0	0.353
774.0	0.352
775.0	0.351
776.0	0.350
777.0	0.349
778.0	0.348
779.0	0.347
780.0	0.346
781.0	0.345
782.0	0.344
783.0	0.343
784.0	0.342
785.0	0.341
786.0	0.340
787.0	0.339
788.0	0.338
789.0	0.337
790.0	0.336
791.0	0.335
792.0	0.334
793.0	0.333
794.0	0.332
795.0	0.331
796.0	0.330
797.0	0.329
798.0	0.328
799.0	0.327
800.0	0.327
801.0	0.326
802.0	0.325
803.0	0.324
804.0	0.323
805.0	0.322
806.0	0.321
807.0	0.320
808.0	0.319
809.0	0.318
810.0	0.317
811.0	0.316
812.0	0.315
813.0	0.314
814.0	0.313
815.0	0.312
816.0	0.311
817.0	0.310
818.0	0.309
819.0	0.308
820.0	0.307
821.0	0.306
822.0	0.305
823.0	0.304
824.0	0.303
825.0	0.302
826.0	0.301
827.0	0.300
828.0	0.299
829.0	0.298
830.0	0.297
831.0	0.296
832.0	0.295
833.0	0.294
834.0	0.293
835.0	0.292
836.0	0.292
837.0	0.291
838.0	0.290
839.0	0.289
840.0	0.288
841.0	0.287
842.0	0.286
843.0	0.285
844.0	0.284
845.0	0.283
846.0	0.282
847.0	0.281
848.0	0.280
849.0	0.280
850.0	0.279
851.0	0.278
852.0	0.277
853.0	0.276
854.0	0.275
855.0	0.274
856.0	0.274
857.0	0.273
858.0	0.272
859.0	0.271
860.0	0.271
861.0	0.270
862.0	0.270
863.0	0.269
864.0	0.268
865.0	0.268
866.0	0.267
867.0	0.266
868.0	0.266
869.0	0.265
870.0	0.265
871.0	0.264
872.0	0.264
873.0	0.263
874.0	0.263
875.0	0.263
876.0	0.262
877.0	0.262
878.0	0.262
879.0	0.261
880.0	0.261
881.0	0.260
882.0	0.259
883.0	0.259
884.0	0.258
885.0	0.257
886.0	0.257
887.0	0.257
888.0	0.257
889.0	0.257
890.0	0.257
891.0	0.257
892.0	0.258
893.0	0.259
894.0	0.260
895.0	0.262
896.0	0.264
897.0	0.267
898.0	0.269
899.0	0.272
900.0	0.275
