Summary
[Data Information]
Data is:	Measurement Data
Dataset Name:	RawData
Sample Name:	0.7g-20ml-PVB
Sample ID:	0.7g-20ml-PVB
Option
Analyst
Date/Time:	05/28/2025 04:15:40 PM
Comments
Parameter File Name:	200-800nm.vspm
Report File Name
[Software Information]
Software Name:	LabSolutions UV-Vis
Version:	1.14
[Instrument Information]
Instrument Name:	BNT
Instrument Type:	UV-1900 Series
Model (S/N):	SBN-SPEC-158 (A12425600028)

Parameter
[Measurement]
Start:	900 nm
End:	190 nm
Data Interval:	1.0
Scan Speed:	High speed
Spectrum Type:	Absorbance
[Accessories]
Accessories:	6-Series Multi-Cell
Number of Cell:	1
[Advanced]
Light Source Switch Wavelength:	340.00
S/R Switch:	Standard
[Repeat]
Repeat Measurement:	OFF
[Post-processing]
Spectrum Transformation:	OFF
Data Processing Table:	OFF
Print:	OFF

Wavelength (nm)	Absorbance
190.0	3.228
191.0	3.157
192.0	1.959
193.0	2.826
194.0	1.216
195.0	3.327
196.0	0.473
197.0	2.700
198.0	2.239
199.0	2.079
200.0	1.677
201.0	3.214
202.0	3.238
203.0	3.619
204.0	4.000
205.0	4.000
206.0	4.000
207.0	4.000
208.0	4.000
209.0	4.000
210.0	4.000
211.0	4.000
212.0	4.000
213.0	4.000
214.0	4.000
215.0	4.000
216.0	4.000
217.0	4.000
218.0	4.000
219.0	4.000
220.0	4.000
221.0	4.000
222.0	4.000
223.0	4.000
224.0	4.000
225.0	4.000
226.0	4.000
227.0	4.000
228.0	4.000
229.0	4.000
230.0	4.000
231.0	4.000
232.0	4.000
233.0	4.000
234.0	4.000
235.0	4.000
236.0	4.000
237.0	4.000
238.0	4.000
239.0	4.000
240.0	4.000
241.0	4.000
242.0	3.999
243.0	4.000
244.0	3.963
245.0	3.995
246.0	3.951
247.0	3.897
248.0	3.782
249.0	3.672
250.0	3.632
251.0	3.517
252.0	3.426
253.0	3.322
254.0	3.251
255.0	3.188
256.0	3.123
257.0	3.043
258.0	2.982
259.0	2.916
260.0	2.880
261.0	2.831
262.0	2.797
263.0	2.759
264.0	2.722
265.0	2.696
266.0	2.659
267.0	2.637
268.0	2.628
269.0	2.605
270.0	2.582
271.0	2.588
272.0	2.582
273.0	2.560
274.0	2.543
275.0	2.540
276.0	2.514
277.0	2.500
278.0	2.474
279.0	2.453
280.0	2.412
281.0	2.382
282.0	2.359
283.0	2.329
284.0	2.306
285.0	2.258
286.0	2.211
287.0	2.154
288.0	2.114
289.0	2.060
290.0	2.012
291.0	1.967
292.0	1.934
293.0	1.899
294.0	1.866
295.0	1.840
296.0	1.807
297.0	1.783
298.0	1.762
299.0	1.741
300.0	1.722
301.0	1.701
302.0	1.687
303.0	1.672
304.0	1.658
305.0	1.642
306.0	1.630
307.0	1.620
308.0	1.606
309.0	1.601
310.0	1.595
311.0	1.583
312.0	1.579
313.0	1.576
314.0	1.567
315.0	1.565
316.0	1.555
317.0	1.557
318.0	1.550
319.0	1.549
320.0	1.546
321.0	1.542
322.0	1.541
323.0	1.540
324.0	1.542
325.0	1.542
326.0	1.534
327.0	1.531
328.0	1.538
329.0	1.537
330.0	1.538
331.0	1.537
332.0	1.539
333.0	1.539
334.0	1.539
335.0	1.543
336.0	1.544
337.0	1.546
338.0	1.544
339.0	1.542
340.0	1.549
341.0	1.554
342.0	1.559
343.0	1.551
344.0	1.554
345.0	1.561
346.0	1.564
347.0	1.570
348.0	1.567
349.0	1.571
350.0	1.572
351.0	1.578
352.0	1.580
353.0	1.588
354.0	1.588
355.0	1.591
356.0	1.595
357.0	1.597
358.0	1.588
359.0	1.594
360.0	1.593
361.0	1.602
362.0	1.599
363.0	1.598
364.0	1.599
365.0	1.596
366.0	1.597
367.0	1.599
368.0	1.600
369.0	1.602
370.0	1.600
371.0	1.598
372.0	1.601
373.0	1.603
374.0	1.601
375.0	1.604
376.0	1.605
377.0	1.611
378.0	1.613
379.0	1.618
380.0	1.622
381.0	1.628
382.0	1.631
383.0	1.637
384.0	1.646
385.0	1.653
386.0	1.658
387.0	1.665
388.0	1.671
389.0	1.681
390.0	1.689
391.0	1.697
392.0	1.703
393.0	1.713
394.0	1.721
395.0	1.730
396.0	1.737
397.0	1.743
398.0	1.753
399.0	1.759
400.0	1.768
401.0	1.777
402.0	1.782
403.0	1.785
404.0	1.791
405.0	1.795
406.0	1.801
407.0	1.807
408.0	1.810
409.0	1.812
410.0	1.814
411.0	1.811
412.0	1.813
413.0	1.812
414.0	1.810
415.0	1.809
416.0	1.804
417.0	1.801
418.0	1.797
419.0	1.792
420.0	1.787
421.0	1.782
422.0	1.774
423.0	1.768
424.0	1.757
425.0	1.752
426.0	1.741
427.0	1.733
428.0	1.725
429.0	1.715
430.0	1.705
431.0	1.693
432.0	1.682
433.0	1.669
434.0	1.656
435.0	1.644
436.0	1.632
437.0	1.617
438.0	1.602
439.0	1.587
440.0	1.573
441.0	1.557
442.0	1.540
443.0	1.523
444.0	1.507
445.0	1.491
446.0	1.474
447.0	1.456
448.0	1.438
449.0	1.421
450.0	1.403
451.0	1.385
452.0	1.367
453.0	1.348
454.0	1.331
455.0	1.313
456.0	1.295
457.0	1.277
458.0	1.258
459.0	1.241
460.0	1.223
461.0	1.206
462.0	1.190
463.0	1.172
464.0	1.156
465.0	1.142
466.0	1.126
467.0	1.110
468.0	1.095
469.0	1.080
470.0	1.065
471.0	1.050
472.0	1.036
473.0	1.023
474.0	1.010
475.0	0.996
476.0	0.983
477.0	0.970
478.0	0.958
479.0	0.946
480.0	0.934
481.0	0.923
482.0	0.912
483.0	0.903
484.0	0.893
485.0	0.884
486.0	0.876
487.0	0.868
488.0	0.861
489.0	0.854
490.0	0.847
491.0	0.841
492.0	0.835
493.0	0.830
494.0	0.825
495.0	0.821
496.0	0.816
497.0	0.812
498.0	0.809
499.0	0.805
500.0	0.802
501.0	0.799
502.0	0.796
503.0	0.793
504.0	0.791
505.0	0.788
506.0	0.786
507.0	0.784
508.0	0.782
509.0	0.780
510.0	0.778
511.0	0.776
512.0	0.774
513.0	0.772
514.0	0.770
515.0	0.769
516.0	0.767
517.0	0.765
518.0	0.763
519.0	0.761
520.0	0.760
521.0	0.758
522.0	0.756
523.0	0.754
524.0	0.752
525.0	0.750
526.0	0.748
527.0	0.746
528.0	0.744
529.0	0.742
530.0	0.741
531.0	0.739
532.0	0.737
533.0	0.735
534.0	0.733
535.0	0.732
536.0	0.730
537.0	0.728
538.0	0.726
539.0	0.725
540.0	0.723
541.0	0.722
542.0	0.720
543.0	0.719
544.0	0.718
545.0	0.716
546.0	0.715
547.0	0.714
548.0	0.713
549.0	0.711
550.0	0.710
551.0	0.709
552.0	0.708
553.0	0.706
554.0	0.705
555.0	0.704
556.0	0.703
557.0	0.701
558.0	0.700
559.0	0.699
560.0	0.698
561.0	0.697
562.0	0.696
563.0	0.694
564.0	0.693
565.0	0.692
566.0	0.691
567.0	0.690
568.0	0.689
569.0	0.688
570.0	0.687
571.0	0.685
572.0	0.684
573.0	0.683
574.0	0.682
575.0	0.681
576.0	0.680
577.0	0.678
578.0	0.677
579.0	0.676
580.0	0.675
581.0	0.673
582.0	0.672
583.0	0.671
584.0	0.670
585.0	0.669
586.0	0.667
587.0	0.666
588.0	0.665
589.0	0.664
590.0	0.662
591.0	0.661
592.0	0.660
593.0	0.659
594.0	0.658
595.0	0.656
596.0	0.655
597.0	0.654
598.0	0.653
599.0	0.651
600.0	0.650
601.0	0.649
602.0	0.648
603.0	0.646
604.0	0.645
605.0	0.644
606.0	0.642
607.0	0.641
608.0	0.640
609.0	0.638
610.0	0.637
611.0	0.636
612.0	0.634
613.0	0.633
614.0	0.632
615.0	0.631
616.0	0.629
617.0	0.628
618.0	0.627
619.0	0.626
620.0	0.624
621.0	0.623
622.0	0.622
623.0	0.620
624.0	0.619
625.0	0.618
626.0	0.617
627.0	0.615
628.0	0.614
629.0	0.613
630.0	0.611
631.0	0.610
632.0	0.609
633.0	0.607
634.0	0.606
635.0	0.605
636.0	0.603
637.0	0.602
638.0	0.600
639.0	0.599
640.0	0.598
641.0	0.596
642.0	0.595
643.0	0.594
644.0	0.592
645.0	0.591
646.0	0.590
647.0	0.588
648.0	0.587
649.0	0.585
650.0	0.584
651.0	0.583
652.0	0.581
653.0	0.580
654.0	0.578
655.0	0.577
656.0	0.576
657.0	0.574
658.0	0.573
659.0	0.571
660.0	0.570
661.0	0.569
662.0	0.567
663.0	0.566
664.0	0.565
665.0	0.563
666.0	0.562
667.0	0.561
668.0	0.559
669.0	0.558
670.0	0.557
671.0	0.555
672.0	0.554
673.0	0.553
674.0	0.551
675.0	0.550
676.0	0.548
677.0	0.547
678.0	0.546
679.0	0.544
680.0	0.543
681.0	0.541
682.0	0.540
683.0	0.539
684.0	0.537
685.0	0.536
686.0	0.534
687.0	0.533
688.0	0.532
689.0	0.530
690.0	0.529
691.0	0.528
692.0	0.526
693.0	0.525
694.0	0.524
695.0	0.522
696.0	0.521
697.0	0.520
698.0	0.518
699.0	0.517
700.0	0.515
701.0	0.514
702.0	0.513
703.0	0.511
704.0	0.510
705.0	0.509
706.0	0.507
707.0	0.506
708.0	0.505
709.0	0.504
710.0	0.502
711.0	0.501
712.0	0.500
713.0	0.498
714.0	0.497
715.0	0.496
716.0	0.495
717.0	0.493
718.0	0.492
719.0	0.491
720.0	0.489
721.0	0.488
722.0	0.487
723.0	0.485
724.0	0.484
725.0	0.483
726.0	0.482
727.0	0.481
728.0	0.479
729.0	0.478
730.0	0.477
731.0	0.476
732.0	0.475
733.0	0.474
734.0	0.473
735.0	0.472
736.0	0.471
737.0	0.471
738.0	0.470
739.0	0.469
740.0	0.469
741.0	0.467
742.0	0.466
743.0	0.465
744.0	0.463
745.0	0.461
746.0	0.459
747.0	0.457
748.0	0.455
749.0	0.454
750.0	0.452
751.0	0.450
752.0	0.449
753.0	0.448
754.0	0.446
755.0	0.445
756.0	0.444
757.0	0.443
758.0	0.441
759.0	0.440
760.0	0.439
761.0	0.438
762.0	0.437
763.0	0.435
764.0	0.434
765.0	0.433
766.0	0.432
767.0	0.431
768.0	0.429
769.0	0.428
770.0	0.427
771.0	0.426
772.0	0.425
773.0	0.423
774.0	0.422
775.0	0.421
776.0	0.420
777.0	0.419
778.0	0.418
779.0	0.416
780.0	0.415
781.0	0.414
782.0	0.413
783.0	0.412
784.0	0.411
785.0	0.410
786.0	0.408
787.0	0.407
788.0	0.406
789.0	0.405
790.0	0.404
791.0	0.402
792.0	0.401
793.0	0.400
794.0	0.399
795.0	0.398
796.0	0.397
797.0	0.396
798.0	0.395
799.0	0.393
800.0	0.392
801.0	0.391
802.0	0.390
803.0	0.389
804.0	0.388
805.0	0.387
806.0	0.386
807.0	0.385
808.0	0.384
809.0	0.383
810.0	0.382
811.0	0.381
812.0	0.379
813.0	0.378
814.0	0.377
815.0	0.376
816.0	0.375
817.0	0.373
818.0	0.372
819.0	0.371
820.0	0.370
821.0	0.369
822.0	0.368
823.0	0.366
824.0	0.365
825.0	0.364
826.0	0.363
827.0	0.362
828.0	0.361
829.0	0.360
830.0	0.359
831.0	0.358
832.0	0.357
833.0	0.356
834.0	0.355
835.0	0.354
836.0	0.352
837.0	0.351
838.0	0.350
839.0	0.349
840.0	0.348
841.0	0.347
842.0	0.346
843.0	0.345
844.0	0.344
845.0	0.343
846.0	0.342
847.0	0.341
848.0	0.340
849.0	0.339
850.0	0.338
851.0	0.337
852.0	0.336
853.0	0.335
854.0	0.334
855.0	0.333
856.0	0.332
857.0	0.331
858.0	0.330
859.0	0.329
860.0	0.328
861.0	0.328
862.0	0.327
863.0	0.326
864.0	0.325
865.0	0.325
866.0	0.324
867.0	0.323
868.0	0.322
869.0	0.322
870.0	0.321
871.0	0.320
872.0	0.320
873.0	0.319
874.0	0.319
875.0	0.318
876.0	0.318
877.0	0.318
878.0	0.317
879.0	0.317
880.0	0.316
881.0	0.315
882.0	0.314
883.0	0.313
884.0	0.313
885.0	0.312
886.0	0.311
887.0	0.311
888.0	0.311
889.0	0.311
890.0	0.311
891.0	0.311
892.0	0.312
893.0	0.313
894.0	0.314
895.0	0.315
896.0	0.317
897.0	0.320
898.0	0.322
899.0	0.325
900.0	0.327
